GEO NO
GO
              APERTURE STOP
              SEMI-DIAMETER =     4.489186
                (Based on the maximum reference ray height at the stop.)




    X and Y focal lengths for each field angle

       X        0.499969E+02        0.517701E+02        0.538569E+02
       Y        0.499969E+02        0.556946E+02        0.633075E+02


    X and Y F-numbers for each field angle

       X            4.499692            4.659279            4.847088
       Y            4.499692            5.153604            7.145553


    Reference sphere radius for each field angle

                0.523489E+02        0.541108E+02        0.561527E+02




    Relative execution time  =   2.49 UNITS





         POSITION  1         DIFFRACTION MTF                          17-Dec-15


           Cooke Triplet f/4.5
                                                                WAVELENGTH   WEIGHT  NO. OF RAYS
      FIELD 1 (ANG) = (  0.00,  0.00) DEG, ( 0.00, 0.00) MAX     656.3 NM       1      1396
      RELATIVE ILLUMINATION = 100.0 PER CENT                     546.1 NM       2      2024
      ILLUMINATION (UNIT BRIGHTNESS) = 0.038686                  486.1 NM       1      2584
      DISTORTION =   0.00 PER CENT


     DIFFRACTION LIMIT    FOCUS POSITION
      Formula  Actual      0.00000
 L/MM f/4.500 RAD  TAN    RAD  TAN
 ---- ----------------   ---------
    0 .999   .999        .999
    8 .974   .975        .966
   16 .949   .949        .923
   24 .923   .924        .876
   32 .898   .898        .827
   40 .872   .873        .778
   48 .847   .847        .728
   56 .821   .822        .678
   64 .796   .797        .629
   72 .771   .771        .582
   80 .746   .746        .537
   88 .721   .721        .495
   96 .696   .696        .457
  104 .671   .671        .421
  112 .646   .646        .389
  120 .622   .622        .360
  128 .598   .597        .333
  136 .574   .574        .310
  144 .550   .550        .288
  152 .526   .526        .268
  160 .503   .502        .250
  168 .479   .479        .235
  176 .456   .456        .220
  184 .434   .433        .208
  192 .411   .410        .196
  200 .389   .388        .186
  208 .367   .366        .178
  216 .346   .345        .170
  224 .325   .323        .163
  232 .304   .303        .157
  240 .284   .282        .152
  248 .264   .262        .147
  256 .244   .243        .143
  264 .225   .224        .139
  272 .207   .206        .134
  280 .189   .188        .129
  288 .171   .171        .123
  296 .154   .154        .117
  304 .138   .138        .110
  312 .123   .123        .102
  320 .108   .108        .093
  328 .095   .095        .083
  336 .082   .082        .072
  344 .071   .072        .062
  352 .061   .061        .051
  360 .052   .052        .042
  368 .043   .042        .032
  376 .034   .034        .024
  384 .027   .026        .017
  392 .020   .020        .012
  400 .014   .014        .006
  408 .010   .011        .005
  416 .008   .009        .004
  424 .006   .006        .003
  432 .004   .004        .002
  440 .002   .003        .002
  448 .001   .001        .001
  456 .000   .001        .001

         POSITION  1         DIFFRACTION MTF                          17-Dec-15


           Cooke Triplet f/4.5
                                                                WAVELENGTH   WEIGHT  NO. OF RAYS
      FIELD 2 (ANG) = (  0.00, 14.00) DEG, ( 0.00, 0.69) MAX     656.3 NM       1      1224
      RELATIVE ILLUMINATION =  87.4 PER CENT                     546.1 NM       2      1770
      ILLUMINATION (UNIT BRIGHTNESS) = 0.033799                  486.1 NM       1      2242
      DISTORTION =   0.49 PER CENT


     DIFFRACTION LIMIT    FOCUS POSITION
      Formula  Actual      0.00000
 L/MM f/4.500 RAD  TAN    RAD  TAN
 ---- ----------------   ---------
    0 .999   .999 .999   .999 .999
    8 .974   .974 .971   .860 .660
   16 .949   .949 .942   .562 .444
   24 .923   .923 .913   .253 .405
   32 .898   .898 .884   .054 .356
   40 .872   .872 .855   .001 .311
   48 .847   .847 .827   .047 .282
   56 .821   .821 .798   .110 .262
   64 .796   .796 .770   .136 .243
   72 .771   .771 .741   .114 .224
   80 .746   .745 .713   .067 .206
   88 .721   .720 .685   .027 .188
   96 .696   .695 .657   .008 .172
  104 .671   .670 .630   .010 .157
  112 .646   .645 .602   .022 .143
  120 .622   .621 .575   .036 .129
  128 .598   .597 .548   .045 .115
  136 .574   .572 .522   .048 .102
  144 .550   .548 .495   .046 .090
  152 .526   .525 .469   .041 .077
  160 .503   .501 .443   .036 .066
  168 .479   .477 .417   .030 .054
  176 .456   .454 .392   .025 .043
  184 .434   .431 .367   .022 .033
  192 .411   .408 .342   .020 .025
  200 .389   .386 .318   .020 .018
  208 .367   .364 .294   .020 .012
  216 .346   .342 .270   .023 .008
  224 .325   .321 .248   .026 .004
  232 .304   .300 .226   .029 .003
  240 .284   .279 .205   .031 .001
  248 .264   .259 .184   .030 .001
  256 .244   .240 .164   .026 .001
  264 .225   .221 .144   .022 .001
  272 .207   .201 .126   .018 .001
  280 .189   .183 .109   .016 .001
  288 .171   .166 .094   .017 .001
  296 .154   .149 .079   .019 .002
  304 .138   .132 .067   .020 .001
  312 .123   .117 .056   .019 .001
  320 .108   .102 .045   .016 .001
  328 .095   .090 .035   .013 .001
  336 .082   .077 .026   .012 .001
  344 .071   .067 .019   .014 .000
  352 .061   .056 .013   .016 .000
  360 .052   .047 .010   .017 .000
  368 .043   .037 .007   .015 .000
  376 .034   .030 .005   .015 .000
  384 .027   .022 .002   .014 .000
  392 .020   .017 .001   .013 .000
  400 .014   .011 .000   .010 .000
  408 .010   .009 .000   .008 .000
  416 .008   .006 .000   .006 .000
  424 .006   .004 .000   .004 .000
  432 .004   .002 .000   .002 .000
  440 .002   .001 .000   .001 .000
  448 .001   .000 .000   .000 .000
  456 .000   .000 .000   .000 .000

         POSITION  1         DIFFRACTION MTF                          17-Dec-15


           Cooke Triplet f/4.5
                                                                WAVELENGTH   WEIGHT  NO. OF RAYS
      FIELD 3 (ANG) = (  0.00, 20.00) DEG, ( 0.00, 1.00) MAX     656.3 NM       1       864
      RELATIVE ILLUMINATION =  61.5 PER CENT                     546.1 NM       2      1240
      ILLUMINATION (UNIT BRIGHTNESS) = 0.023774                  486.1 NM       1      1578
      DISTORTION =   1.25 PER CENT


     DIFFRACTION LIMIT    FOCUS POSITION
      Formula  Actual      0.00000
 L/MM f/4.500 RAD  TAN    RAD  TAN
 ---- ----------------   ---------
    0 .999   .999 .999   .999 .999
    8 .974   .974 .960   .815 .710
   16 .949   .947 .921   .457 .344
   24 .923   .921 .881   .138 .264
   32 .898   .894 .841   .013 .200
   40 .872   .868 .802   .002 .169
   48 .847   .842 .762   .073 .149
   56 .821   .816 .723   .117 .121
   64 .796   .790 .684   .104 .095
   72 .771   .764 .644   .060 .086
   80 .746   .737 .605   .022 .085
   88 .721   .711 .567   .006 .079
   96 .696   .685 .529   .009 .071
  104 .671   .660 .491   .024 .065
  112 .646   .635 .454   .039 .063
  120 .622   .610 .417   .047 .059
  128 .598   .586 .382   .048 .055
  136 .574   .561 .347   .043 .052
  144 .550   .537 .313   .035 .049
  152 .526   .512 .281   .027 .044
  160 .503   .488 .249   .019 .038
  168 .479   .464 .219   .015 .034
  176 .456   .441 .189   .012 .036
  184 .434   .418 .162   .013 .036
  192 .411   .396 .136   .017 .032
  200 .389   .373 .113   .023 .031
  208 .367   .351 .091   .031 .028
  216 .346   .329 .073   .037 .020
  224 .325   .308 .057   .038 .020
  232 .304   .287 .043   .033 .018
  240 .284   .267 .030   .024 .014
  248 .264   .247 .021   .018 .009
  256 .244   .227 .011   .017 .004
  264 .225   .208 .008   .022 .004
  272 .207   .190 .004   .027 .003
  280 .189   .172 .002   .030 .002
  288 .171   .154 .000   .026 .000
  296 .154   .137 .000   .021 .000
  304 .138   .121 .000   .018 .000
  312 .123   .106 .000   .023 .000
  320 .108   .091 .000   .026 .000
  328 .095   .080 .000   .029 .000
  336 .082   .069 .000   .027 .000
  344 .071   .059 .000   .026 .000
  352 .061   .048 .000   .024 .000
  360 .052   .039 .000   .021 .000
  368 .043   .030 .000   .015 .000
  376 .034   .022 .000   .009 .000
  384 .027   .015 .000   .002 .000
  392 .020   .012 .000   .001 .000
  400 .014   .009 .000   .000 .000
  408 .010   .007 .000   .000 .000
  416 .008   .004 .000   .001 .000
  424 .006   .002 .000   .001 .000
  432 .004   .000 .000   .000 .000
  440 .002   .000 .000   .000 .000
  448 .001   .000 .000   .000 .000
  456 .000   .000 .000   .000 .000
