GEO NO
GO
              APERTURE STOP
              SEMI-DIAMETER =    16.666667
                (Based on the maximum reference ray height at the stop.)




    X and Y focal lengths for each field angle

       X        0.996545E+02        0.997095E+02        0.997782E+02
       Y        0.996545E+02        0.998117E+02        0.100009E+03


    X and Y F-numbers for each field angle

       X            2.989635            2.991284            2.993346
       Y            2.989635            2.994352            3.000259


    Reference sphere radius for each field angle

                0.100257E+03        0.100315E+03        0.100387E+03




    Relative execution time  =   2.97 UNITS





         POSITION  1         DIFFRACTION MTF            ORA           17-Dec-15


           Doublet
                                                                WAVELENGTH   WEIGHT  NO. OF RAYS
      FIELD 1 (ANG) = (  0.00,  0.00) DEG, ( 0.00, 0.00) MAX     656.3 NM       1      1688
      RELATIVE ILLUMINATION = 100.0 PER CENT                     587.6 NM       1      2104
      ILLUMINATION (UNIT BRIGHTNESS) = 0.087643                  486.1 NM       1      3072
      DISTORTION =   0.00 PER CENT


     DIFFRACTION LIMIT    FOCUS POSITION
      Formula  Actual      0.00000
 L/MM f/3.000 RAD  TAN    RAD  TAN
 ---- ----------------   ---------
    0 .999   .999        .999
   11 .976   .976        .302
   22 .952   .952        .205
   33 .927   .928        .166
   44 .903   .904        .141
   55 .879   .880        .127
   66 .855   .856        .115
   77 .831   .832        .103
   88 .807   .808        .094
   99 .783   .785        .085
  110 .759   .761        .077
  121 .736   .737        .070
  132 .712   .714        .063
  143 .688   .690        .055
  154 .665   .667        .048
  165 .642   .644        .041
  176 .619   .621        .035
  187 .596   .598        .029
  198 .573   .575        .023
  209 .550   .552        .018
  220 .528   .530        .013
  231 .506   .508        .009
  242 .484   .485        .006
  253 .462   .464        .004
  264 .440   .442        .002
  275 .419   .421        .001
  286 .398   .400        .001
  297 .377   .379        .000
  308 .357   .359        .000
  319 .337   .339        .000
  330 .317   .319        .000
  341 .297   .300        .000
  352 .278   .280        .000
  363 .260   .262        .000
  374 .241   .243        .000
  385 .223   .226        .000
  396 .206   .208        .000
  407 .189   .191        .000
  418 .172   .175        .000
  429 .157   .159        .000
  440 .141   .144        .000
  451 .127   .129        .000
  462 .113   .115        .000
  473 .099   .102        .000
  484 .087   .089        .000
  495 .076   .078        .000
  506 .066   .066        .000
  517 .057   .058        .000
  528 .050   .050        .000
  539 .043   .044        .000
  550 .036   .037        .000
  561 .031   .032        .000
  572 .026   .027        .000
  583 .023   .023        .000
  594 .019   .019        .000
  605 .016   .016        .000
  616 .013   .013        .000
  627 .010   .010        .000
  638 .007   .007        .000
  649 .005   .005        .000
  660 .003   .003        .000
  671 .001   .002        .000
  682 .000   .000        .000
  693 .000   .000        .000

         POSITION  1         DIFFRACTION MTF            ORA           17-Dec-15


           Doublet
                                                                WAVELENGTH   WEIGHT  NO. OF RAYS
      FIELD 2 (ANG) = (  0.00,  2.00) DEG, ( 0.00, 0.67) MAX     656.3 NM       1      1682
      RELATIVE ILLUMINATION =  99.8 PER CENT                     587.6 NM       1      2104
      ILLUMINATION (UNIT BRIGHTNESS) = 0.087429                  486.1 NM       1      3060
      DISTORTION =   0.00 PER CENT


     DIFFRACTION LIMIT    FOCUS POSITION
      Formula  Actual      0.00000
 L/MM f/3.000 RAD  TAN    RAD  TAN
 ---- ----------------   ---------
    0 .999   .999 .999   .999 .999
   11 .976   .976 .976   .393 .452
   22 .952   .952 .952   .290 .253
   33 .927   .928 .928   .237 .107
   44 .903   .904 .904   .194 .051
   55 .879   .880 .880   .155 .038
   66 .855   .856 .856   .122 .016
   77 .831   .832 .832   .095 .025
   88 .807   .808 .808   .073 .034
   99 .783   .784 .784   .058 .033
  110 .759   .760 .760   .047 .031
  121 .736   .737 .737   .038 .031
  132 .712   .713 .713   .033 .029
  143 .688   .690 .690   .030 .024
  154 .665   .667 .666   .028 .019
  165 .642   .643 .643   .028 .013
  176 .619   .620 .620   .028 .008
  187 .596   .597 .597   .030 .005
  198 .573   .574 .575   .032 .004
  209 .550   .552 .552   .034 .003
  220 .528   .529 .529   .037 .005
  231 .506   .507 .507   .041 .008
  242 .484   .485 .485   .044 .011
  253 .462   .464 .463   .046 .013
  264 .440   .442 .442   .045 .010
  275 .419   .421 .420   .042 .005
  286 .398   .400 .399   .036 .006
  297 .377   .379 .378   .028 .011
  308 .357   .359 .358   .019 .009
  319 .337   .339 .338   .011 .000
  330 .317   .319 .318   .006 .007
  341 .297   .299 .298   .002 .009
  352 .278   .280 .279   .001 .007
  363 .260   .261 .260   .000 .008
  374 .241   .243 .242   .000 .007
  385 .223   .225 .224   .000 .004
  396 .206   .208 .207   .000 .002
  407 .189   .191 .190   .000 .001
  418 .172   .174 .173   .000 .001
  429 .157   .159 .157   .000 .000
  440 .141   .143 .142   .000 .001
  451 .127   .128 .127   .000 .000
  462 .113   .114 .113   .000 .001
  473 .099   .101 .100   .000 .000
  484 .087   .088 .088   .000 .001
  495 .076   .077 .076   .000 .000
  506 .066   .066 .066   .000 .000
  517 .057   .059 .058   .000 .000
  528 .050   .051 .050   .000 .000
  539 .043   .044 .043   .000 .000
  550 .036   .037 .037   .000 .000
  561 .031   .032 .031   .000 .000
  572 .026   .027 .026   .000 .000
  583 .023   .023 .023   .000 .000
  594 .019   .020 .019   .000 .000
  605 .016   .016 .016   .000 .000
  616 .013   .013 .013   .000 .000
  627 .010   .010 .010   .000 .000
  638 .007   .007 .007   .000 .000
  649 .005   .005 .005   .000 .000
  660 .003   .003 .003   .000 .000
  671 .001   .002 .001   .000 .000
  682 .000   .000 .000   .000 .000
  693 .000   .000 .000   .000 .000

         POSITION  1         DIFFRACTION MTF            ORA           17-Dec-15


           Doublet
                                                                WAVELENGTH   WEIGHT  NO. OF RAYS
      FIELD 3 (ANG) = (  0.00,  3.00) DEG, ( 0.00, 1.00) MAX     656.3 NM       1      1678
      RELATIVE ILLUMINATION =  99.5 PER CENT                     587.6 NM       1      2094
      ILLUMINATION (UNIT BRIGHTNESS) = 0.087169                  486.1 NM       1      3054
      DISTORTION =  -0.01 PER CENT


     DIFFRACTION LIMIT    FOCUS POSITION
      Formula  Actual      0.00000
 L/MM f/3.000 RAD  TAN    RAD  TAN
 ---- ----------------   ---------
    0 .999   .999 .999   .999 .999
   11 .976   .976 .976   .460 .290
   22 .952   .952 .952   .272 .094
   33 .927   .928 .928   .125 .053
   44 .903   .904 .904   .045 .023
   55 .879   .880 .880   .028 .029
   66 .855   .856 .856   .042 .029
   77 .831   .832 .831   .056 .011
   88 .807   .808 .807   .057 .022
   99 .783   .784 .783   .049 .029
  110 .759   .760 .760   .038 .013
  121 .736   .737 .736   .030 .027
  132 .712   .713 .712   .026 .016
  143 .688   .690 .689   .023 .015
  154 .665   .666 .666   .020 .011
  165 .642   .643 .642   .019 .002
  176 .619   .620 .619   .017 .006
  187 .596   .597 .596   .016 .004
  198 .573   .574 .573   .015 .001
  209 .550   .552 .551   .014 .003
  220 .528   .529 .528   .013 .003
  231 .506   .507 .506   .011 .003
  242 .484   .485 .484   .011 .005
  253 .462   .463 .463   .010 .007
  264 .440   .442 .441   .012 .009
  275 .419   .420 .419   .015 .009
  286 .398   .399 .398   .017 .006
  297 .377   .379 .378   .015 .006
  308 .357   .358 .357   .009 .008
  319 .337   .338 .337   .002 .005
  330 .317   .318 .317   .002 .004
  341 .297   .298 .297   .013 .006
  352 .278   .279 .278   .027 .007
  363 .260   .261 .260   .032 .009
  374 .241   .242 .241   .024 .010
  385 .223   .224 .223   .013 .012
  396 .206   .207 .206   .004 .009
  407 .189   .190 .189   .001 .003
  418 .172   .173 .172   .000 .004
  429 .157   .157 .156   .000 .008
  440 .141   .142 .141   .000 .005
  451 .127   .128 .126   .001 .008
  462 .113   .113 .112   .001 .004
  473 .099   .100 .099   .000 .007
  484 .087   .088 .087   .000 .006
  495 .076   .077 .075   .000 .002
  506 .066   .066 .065   .000 .001
  517 .057   .058 .057   .000 .001
  528 .050   .050 .050   .000 .001
  539 .043   .043 .043   .000 .000
  550 .036   .037 .036   .000 .000
  561 .031   .031 .031   .000 .000
  572 .026   .026 .026   .000 .000
  583 .023   .023 .022   .000 .000
  594 .019   .019 .019   .000 .000
  605 .016   .016 .016   .000 .000
  616 .013   .013 .013   .000 .000
  627 .010   .010 .010   .000 .000
  638 .007   .007 .007   .000 .000
  649 .005   .005 .005   .000 .000
  660 .003   .003 .003   .000 .000
  671 .001   .001 .001   .000 .000
  682 .000   .000 .000   .000 .000
  693 .000   .000 .000   .000 .000
